Позиция x (м) Температура T (°C)
0 300
0.000200401 298.884
0.000400802 297.768
0.000601202 296.652
0.000801603 295.536
0.001002 294.42
0.0012024 293.304
0.00140281 292.189
0.00160321 291.074
0.00180361 289.959
0.00200401 288.844
0.00220441 287.73
0.00240481 286.616
0.00260521 285.502
0.00280561 284.389
0.00300601 283.277
0.00320641 282.164
0.00340681 281.053
0.00360721 279.942
0.00380762 278.831
0.00400802 277.721
0.00420842 276.612
0.00440882 275.504
0.00460922 274.396
0.00480962 273.289
0.00501002 272.183
0.00521042 271.078
0.00541082 269.973
0.00561122 268.87
0.00581162 267.767
0.00601202 266.665
0.00621242 265.565
0.00641283 264.465
0.00661323 263.367
0.00681363 262.269
0.00701403 261.173
0.00721443 260.077
0.00741483 258.983
0.00761523 257.89
0.00781563 256.799
0.00801603 255.709
0.00821643 254.62
0.00841683 253.532
0.00861723 252.446
0.00881764 251.361
0.00901804 250.277
0.00921844 249.196
0.00941884 248.115
0.00961924 247.036
0.00981964 245.959
0.01002 244.883
0.0102204 243.809
0.0104208 242.736
0.0106212 241.666
0.0108216 240.597
0.011022 239.529
0.0112224 238.464
0.0114228 237.4
0.0116232 236.338
0.0118236 235.278
0.012024 234.22
0.0122244 233.164
0.0124248 232.109
0.0126253 231.057
0.0128257 230.007
0.0130261 228.959
0.0132265 227.913
0.0134269 226.869
0.0136273 225.827
0.0138277 224.787
0.0140281 223.749
0.0142285 222.714
0.0144289 221.681
0.0146293 220.65
0.0148297 219.622
0.0150301 218.595
0.0152305 217.572
0.0154309 216.55
0.0156313 215.531
0.0158317 214.515
0.0160321 213.5
0.0162325 212.489
0.0164329 211.48
0.0166333 210.473
0.0168337 209.469
0.0170341 208.468
0.0172345 207.469
0.0174349 206.473
0.0176353 205.479
0.0178357 204.488
0.0180361 203.5
0.0182365 202.515
0.0184369 201.532
0.0186373 200.553
0.0188377 199.576
0.0190381 198.602
0.0192385 197.631
0.0194389 196.662
0.0196393 195.697
0.0198397 194.735
0.0200401 193.775
0.0202405 192.819
0.0204409 191.865
0.0206413 190.915
0.0208417 189.967
0.0210421 189.023
0.0212425 188.082
0.0214429 187.144
0.0216433 186.209
0.0218437 185.277
0.0220441 184.349
0.0222445 183.424
0.0224449 182.502
0.0226453 181.583
0.0228457 180.667
0.0230461 179.755
0.0232465 178.846
0.0234469 177.941
0.0236473 177.039
0.0238477 176.14
0.0240481 175.244
0.0242485 174.352
0.0244489 173.464
0.0246493 172.579
0.0248497 171.697
0.0250501 170.819
0.0252505 169.944
0.0254509 169.073
0.0256513 168.206
0.0258517 167.342
0.0260521 166.482
0.0262525 165.625
0.0264529 164.772
0.0266533 163.922
0.0268537 163.077
0.0270541 162.234
0.0272545 161.396
0.0274549 160.561
0.0276553 159.73
0.0278557 158.903
0.0280561 158.079
0.0282565 157.26
0.0284569 156.444
0.0286573 155.632
0.0288577 154.823
0.0290581 154.019
0.0292585 153.218
0.0294589 152.421
0.0296593 151.628
0.0298597 150.839
0.0300601 150.054
0.0302605 149.273
0.0304609 148.495
0.0306613 147.722
0.0308617 146.953
0.0310621 146.187
0.0312625 145.426
0.0314629 144.668
0.0316633 143.915
0.0318637 143.165
0.0320641 142.42
0.0322645 141.678
0.0324649 140.941
0.0326653 140.208
0.0328657 139.478
0.0330661 138.753
0.0332665 138.032
0.0334669 137.315
0.0336673 136.602
0.0338677 135.893
0.0340681 135.189
0.0342685 134.488
0.0344689 133.792
0.0346693 133.1
0.0348697 132.412
0.0350701 131.728
0.0352705 131.048
0.0354709 130.373
0.0356713 129.701
0.0358717 129.034
0.0360721 128.371
0.0362725 127.713
0.0364729 127.058
0.0366733 126.408
0.0368737 125.762
0.0370741 125.12
0.0372745 124.483
0.0374749 123.849
0.0376754 123.22
0.0378758 122.596
0.0380762 121.975
0.0382766 121.359
0.038477 120.747
0.0386774 120.139
0.0388778 119.536
0.0390782 118.937
0.0392786 118.342
0.039479 117.752
0.0396794 117.166
0.0398798 116.584
0.0400802 116.006
0.0402806 115.433
0.040481 114.864
0.0406814 114.299
0.0408818 113.739
0.0410822 113.183
0.0412826 112.632
0.041483 112.084
0.0416834 111.541
0.0418838 111.003
0.0420842 110.468
0.0422846 109.938
0.042485 109.413
0.0426854 108.891
0.0428858 108.374
0.0430862 107.862
0.0432866 107.353
0.043487 106.849
0.0436874 106.35
0.0438878 105.854
0.0440882 105.363
0.0442886 104.877
0.044489 104.394
0.0446894 103.916
0.0448898 103.443
0.0450902 102.973
0.0452906 102.508
0.045491 102.047
0.0456914 101.591
0.0458918 101.139
0.0460922 100.691
0.0462926 100.248
0.046493 99.8085
0.0466934 99.3736
0.0468938 98.943
0.0470942 98.5168
0.0472946 98.0948
0.047495 97.6771
0.0476954 97.2637
0.0478958 96.8546
0.0480962 96.4497
0.0482966 96.0492
0.048497 95.6529
0.0486974 95.2608
0.0488978 94.873
0.0490982 94.4895
0.0492986 94.1102
0.049499 93.7352
0.0496994 93.3644
0.0498998 92.9978
0.0501002 92.6355
0.0503006 92.2774
0.050501 91.9235
0.0507014 91.5738
0.0509018 91.2283
0.0511022 90.887
0.0513026 90.5498
0.051503 90.2169
0.0517034 89.8881
0.0519038 89.5635
0.0521042 89.2431
0.0523046 88.9268
0.052505 88.6146
0.0527054 88.3066
0.0529058 88.0027
0.0531062 87.7029
0.0533066 87.4073
0.053507 87.1157
0.0537074 86.8282
0.0539078 86.5448
0.0541082 86.2655
0.0543086 85.9903
0.054509 85.7191
0.0547094 85.4519
0.0549098 85.1888
0.0551102 84.9297
0.0553106 84.6746
0.055511 84.4236
0.0557114 84.1765
0.0559118 83.9335
0.0561122 83.6944
0.0563126 83.4592
0.056513 83.2281
0.0567134 83.0009
0.0569138 82.7776
0.0571142 82.5582
0.0573146 82.3428
0.057515 82.1312
0.0577154 81.9236
0.0579158 81.7198
0.0581162 81.5199
0.0583166 81.3238
0.058517 81.1316
0.0587174 80.9433
0.0589178 80.7587
0.0591182 80.578
0.0593186 80.401
0.059519 80.2279
0.0597194 80.0585
0.0599198 79.8928
0.0601202 79.731
0.0603206 79.5728
0.060521 79.4184
0.0607214 79.2677
0.0609218 79.1207
0.0611222 78.9773
0.0613226 78.8376
0.061523 78.7016
0.0617234 78.5692
0.0619238 78.4405
0.0621242 78.3154
0.0623246 78.1938
0.0625251 78.0759
0.0627255 77.9615
0.0629259 77.8507
0.0631263 77.7434
0.0633267 77.6397
0.0635271 77.5395
0.0637275 77.4427
0.0639279 77.3495
0.0641283 77.2597
0.0643287 77.1734
0.0645291 77.0906
0.0647295 77.0111
0.0649299 76.9351
0.0651303 76.8625
0.0653307 76.7932
0.0655311 76.7274
0.0657315 76.6648
0.0659319 76.6056
0.0661323 76.5498
0.0663327 76.4972
0.0665331 76.4479
0.0667335 76.4019
0.0669339 76.3592
0.0671343 76.3197
0.0673347 76.2834
0.0675351 76.2503
0.0677355 76.2204
0.0679359 76.1937
0.0681363 76.1702
0.0683367 76.1498
0.0685371 76.1325
0.0687375 76.1184
0.0689379 76.1073
0.0691383 76.0993
0.0693387 76.0944
0.0695391 76.0925
0.0697395 76.0937
0.0699399 76.0978
0.0701403 76.105
0.0703407 76.1151
0.0705411 76.1282
0.0707415 76.1442
0.0709419 76.1632
0.0711423 76.185
0.0713427 76.2098
0.0715431 76.2374
0.0717435 76.2679
0.0719439 76.3012
0.0721443 76.3373
0.0723447 76.3763
0.0725451 76.418
0.0727455 76.4625
0.0729459 76.5097
0.0731463 76.5597
0.0733467 76.6123
0.0735471 76.6677
0.0737475 76.7258
0.0739479 76.7865
0.0741483 76.8498
0.0743487 76.9158
0.0745491 76.9843
0.0747495 77.0555
0.0749499 77.1292
0.0751503 77.2055
0.0753507 77.2843
0.0755511 77.3656
0.0757515 77.4494
0.0759519 77.5356
0.0761523 77.6243
0.0763527 77.7155
0.0765531 77.8091
0.0767535 77.905
0.0769539 78.0034
0.0771543 78.1041
0.0773547 78.2072
0.0775551 78.3125
0.0777555 78.4202
0.0779559 78.5302
0.0781563 78.6424
0.0783567 78.7568
0.0785571 78.8735
0.0787575 78.9924
0.0789579 79.1135
0.0791583 79.2368
0.0793587 79.3622
0.0795591 79.4897
0.0797595 79.6194
0.0799599 79.7511
0.0801603 79.8849
0.0803607 80.0207
0.0805611 80.1586
0.0807615 80.2985
0.0809619 80.4404
0.0811623 80.5843
0.0813627 80.7301
0.0815631 80.8778
0.0817635 81.0275
0.0819639 81.179
0.0821643 81.3324
0.0823647 81.4877
0.0825651 81.6448
0.0827655 81.8037
0.0829659 81.9644
0.0831663 82.1269
0.0833667 82.2912
0.0835671 82.4571
0.0837675 82.6248
0.0839679 82.7942
0.0841683 82.9652
0.0843687 83.1379
0.0845691 83.3122
0.0847695 83.4882
0.0849699 83.6657
0.0851703 83.8448
0.0853707 84.0255
0.0855711 84.2076
0.0857715 84.3913
0.0859719 84.5765
0.0861723 84.7631
0.0863727 84.9512
0.0865731 85.1407
0.0867735 85.3317
0.0869739 85.524
0.0871743 85.7177
0.0873747 85.9127
0.0875752 86.109
0.0877756 86.3067
0.087976 86.5056
0.0881764 86.7058
0.0883768 86.9073
0.0885772 87.1099
0.0887776 87.3138
0.088978 87.5188
0.0891784 87.725
0.0893788 87.9323
0.0895792 88.1408
0.0897796 88.3504
0.08998 88.561
0.0901804 88.7727
0.0903808 88.9854
0.0905812 89.1991
0.0907816 89.4138
0.090982 89.6295
0.0911824 89.8462
0.0913828 90.0637
0.0915832 90.2822
0.0917836 90.5016
0.091984 90.7218
0.0921844 90.9429
0.0923848 91.1648
0.0925852 91.3875
0.0927856 91.611
0.092986 91.8353
0.0931864 92.0603
0.0933868 92.286
0.0935872 92.5124
0.0937876 92.7395
0.093988 92.9672
0.0941884 93.1956
0.0943888 93.4246
0.0945892 93.6542
0.0947896 93.8843
0.09499 94.1151
0.0951904 94.3463
0.0953908 94.578
0.0955912 94.8103
0.0957916 95.043
0.095992 95.2761
0.0961924 95.5097
0.0963928 95.7437
0.0965932 95.978
0.0967936 96.2128
0.096994 96.4478
0.0971944 96.6832
0.0973948 96.9189
0.0975952 97.1548
0.0977956 97.391
0.097996 97.6275
0.0981964 97.8641
0.0983968 98.101
0.0985972 98.338
0.0987976 98.5751
0.098998 98.8124
0.0991984 99.0498
0.0993988 99.2873
0.0995992 99.5248
0.0997996 99.7624
0.1 100
